Date: 20.2.2020 , In use by: Mena
Daytime: 11:21:7, Temperature: 25°C
ID, strain4A, strain4B, loadcell x, temp [°C], runtime [ms]
BASELINE Time: 11:21:20
1, 1785342.00, 9729483.00, 8492827.00,25, 0
2, 1785328.00, 9729541.00, 8492742.00,25, 0
3, 1785057.00, 9729366.00, 8492808.00,25, 105
4, 1785050.00, 9729112.00, 8492816.00,25, 209
5, 1784890.00, 9728898.00, 8492853.00,25, 314
6, 1784774.00, 9728763.00, 8492862.00,25, 418
7, 1784656.00, 9728665.00, 8492765.00,25, 523
8, 1784550.00, 9728576.00, 8492673.00,25, 628
9, 1784421.00, 9728454.00, 8492706.00,25, 732
10, 1784153.00, 9728262.00, 8492828.00,25, 837
11, 1783929.00, 9728227.00, 8492756.00,25, 941
12, 1783769.00, 9728090.00, 8492896.00,25, 1046
13, 1783594.00, 9727752.00, 8492843.00,25, 1150
14, 1783344.00, 9727565.00, 8492881.00,25, 1255
15, 1783154.00, 9727392.00, 8492860.00,25, 1360
16, 1783035.00, 9727347.00, 8492883.00,25, 1464
17, 1782875.00, 9727231.00, 8492778.00,25, 1569
18, 1782746.00, 9727057.00, 8492819.00,25, 1673
19, 1782629.00, 9726924.00, 8492803.00,25, 1778
20, 1782500.00, 9726818.00, 8492905.00,25, 1882
21, 1782327.00, 9726556.00, 8492935.00,25, 1987
22, 1782188.00, 9726417.00, 8492864.00,25, 2092
23, 1782069.00, 9726354.00, 8492782.00,25, 2196
24, 1781902.00, 9726284.00, 8492818.00,25, 2301
25, 1781758.00, 9726136.00, 8492871.00,25, 2405
26, 1781611.00, 9726015.00, 8492833.00,25, 2510
27, 1781492.00, 9725891.00, 8492845.00,25, 2614
28, 1781383.00, 9725802.00, 8492902.00,25, 2719
29, 1781250.00, 9725626.00, 8492852.00,25, 2824
30, 1781109.00, 9725489.00, 8492887.00,25, 2928
31, 1781008.00, 9725328.00, 8492847.00,25, 3033
32, 1780868.00, 9725148.00, 8492794.00,25, 3137
33, 1780707.00, 9725095.00, 8492696.00,25, 3242
34, 1780534.00, 9724911.00, 8492738.00,25, 3346
35, 1780414.00, 9724867.00, 8492764.00,25, 3451
36, 1780335.00, 9724748.00, 8492815.00,25, 3556
37, 1780220.00, 9724483.00, 8492866.00,25, 3660
38, 1780109.00, 9724397.00, 8492847.00,25, 3765
39, 1779932.00, 9724339.00, 8492807.00,25, 3869
40, 1779744.00, 9724227.00, 8492780.00,25, 3974
41, 1779648.00, 9724143.00, 8492854.00,25, 4078
42, 1779504.00, 9724076.00, 8492884.00,25, 4183
43, 1779411.00, 9723951.00, 8492902.00,25, 4288
44, 1779324.00, 9723806.00, 8492947.00,25, 4392
45, 1779211.00, 9723608.00, 8492681.00,25, 4497
46, 1779080.00, 9723501.00, 8492788.00,25, 4601
47, 1778979.00, 9723440.00, 8492862.00,25, 4706
48, 1778828.00, 9723404.00, 8492846.00,25, 4810
49, 1778686.00, 9723214.00, 8492789.00,25, 4915
50, 1778595.00, 9723136.00, 8492932.00,25, 5020
51, 1778493.00, 9723083.00, 8492936.00,25, 5124
52, 1778391.00, 9722953.00, 8492884.00,25, 5229
53, 1778226.00, 9722815.00, 8492792.00,25, 5333
54, 1778083.00, 9722748.00, 8492775.00,25, 5438
55, 1777958.00, 9722623.00, 8492734.00,25, 5542
56, 1777902.00, 9722491.00, 8492771.00,25, 5647
57, 1777782.00, 9722403.00, 8492870.00,25, 5752
58, 1777696.00, 9722299.00, 8492900.00,25, 5856
59, 1777583.00, 9722214.00, 8492875.00,25, 5961
60, 1777555.00, 9722125.00, 8492886.00,25, 6065
61, 1777380.00, 9721988.00, 8492912.00,25, 6170
62, 1777234.00, 9721800.00, 8492907.00,25, 6274
63, 1777101.00, 9721732.00, 8492873.00,25, 6379
64, 1776998.00, 9721686.00, 8492896.00,25, 6483
65, 1776867.00, 9721652.00, 8492824.00,25, 6588
66, 1776755.00, 9721574.00, 8492825.00,25, 6693
67, 1776698.00, 9721449.00, 8492851.00,25, 6797
68, 1776611.00, 9721357.00, 8492845.00,25, 6902
69, 1776505.00, 9721292.00, 8492831.00,25, 7006
70, 1776342.00, 9721194.00, 8492919.00,25, 7111
71, 1776228.00, 9720999.00, 8492916.00,25, 7215
72, 1776158.00, 9720909.00, 8492856.00,25, 7320
73, 1776022.00, 9720846.00, 8492905.00,25, 7425
74, 1775908.00, 9720721.00, 8492896.00,25, 7529
75, 1775808.00, 9720714.00, 8492805.00,25, 7634
76, 1775700.00, 9720640.00, 8492816.00,25, 7738
77, 1775580.00, 9720372.00, 8492817.00,25, 7843
78, 1775512.00, 9720275.00, 8492839.00,25, 7947
79, 1775460.00, 9720214.00, 8492876.00,25, 8052
80, 1775339.00, 9720117.00, 8492835.00,25, 8157
81, 1775194.00, 9719996.00, 8492820.00,25, 8261
82, 1775108.00, 9719961.00, 8492764.00,25, 8366
83, 1775003.00, 9719927.00, 8492793.00,25, 8470
84, 1774893.00, 9719859.00, 8492862.00,25, 8575
85, 1774809.00, 9719709.00, 8492876.00,25, 8679
86, 1774765.00, 9719588.00, 8492886.00,25, 8784
87, 1774669.00, 9719546.00, 8492946.00,25, 8889
88, 1774530.00, 9719494.00, 8492921.00,25, 8993
89, 1774425.00, 9719436.00, 8492900.00,25, 9098
90, 1774241.00, 9719328.00, 8492796.00,25, 9202
91, 1774181.00, 9719221.00, 8492891.00,25, 9307
92, 1774111.00, 9719127.00, 8492962.00,25, 9411
93, 1774003.00, 9718976.00, 8492785.00,25, 9516
94, 1773939.00, 9718893.00, 8492875.00,25, 9621
95, 1773837.00, 9718818.00, 8492938.00,25, 9725
96, 1773747.00, 9718697.00, 8492884.00,25, 9830
97, 1773639.00, 9718660.00, 8492796.00,25, 9934
98, 1773528.00, 9718587.00, 8492775.00,25, 10039
99, 1773465.00, 9718475.00, 8492943.00,25, 10143
100, 1773383.00, 9718423.00, 8492825.00,25, 10248
101, 1773282.00, 9718285.00, 8492818.00,25, 10353
102, 1773184.00, 9718222.00, 8492847.00,25, 10457
103, 1773144.00, 9718122.00, 8492825.00,25, 10562
104, 1773075.00, 9718023.00, 8492690.00,25, 10666
105, 1772968.00, 9717923.00, 8492818.00,25, 10771
106, 1772893.00, 9717837.00, 8492925.00,25, 10875
107, 1772807.00, 9717800.00, 8492918.00,25, 10980
108, 1772635.00, 9717595.00, 8493012.00,25, 11085
109, 1772598.00, 9717552.00, 8492958.00,25, 11189
110, 1772549.00, 9717541.00, 8492877.00,25, 11294
111, 1772422.00, 9717476.00, 8492834.00,25, 11398
112, 1772281.00, 9717365.00, 8492831.00,25, 11503
113, 1772187.00, 9717271.00, 8492780.00,25, 11607
114, 1772099.00, 9717209.00, 8492798.00,25, 11712
115, 1772040.00, 9717187.00, 8492803.00,25, 11817
116, 1771903.00, 9717102.00, 8492957.00,25, 11921
117, 1771792.00, 9717030.00, 8492996.00,25, 12026
118, 1771764.00, 9716974.00, 8492858.00,25, 12130
119, 1771701.00, 9716906.00, 8492803.00,25, 12235
120, 1771653.00, 9716858.00, 8492795.00,25, 12340
121, 1771610.00, 9716847.00, 8492866.00,25, 12444
122, 1771542.00, 9716856.00, 8492886.00,25, 12549
123, 1771400.00, 9716779.00, 8492872.00,25, 12653
BASELINE Time: 11:21:33
RECORDING Time: 11:21:41
1, 1764232.00, 9711452.00, 8492804.00,25, 0
2, 1764212.00, 9711304.00, 8492936.00,25, 0
3, 1764104.00, 9711345.00, 8492841.00,25, 105
4, 1763929.00, 9711413.00, 8492859.00,25, 209
5, 1763763.00, 9711165.00, 8492879.00,25, 314
6, 1763745.00, 9711160.00, 8492826.00,25, 419
7, 1763704.00, 9711197.00, 8492870.00,25, 523
8, 1763602.00, 9711092.00, 8492976.00,25, 628
9, 1763412.00, 9711120.00, 8492800.00,25, 732
10, 1763331.00, 9711068.00, 8492779.00,25, 837
11, 1763243.00, 9710904.00, 8492744.00,25, 941
12, 1763095.00, 9710889.00, 8492810.00,25, 1046
13, 1762960.00, 9710825.00, 8492803.00,25, 1151
14, 1762827.00, 9710682.00, 8492837.00,25, 1255
15, 1762659.00, 9710577.00, 8492859.00,25, 1360
16, 1762588.00, 9710530.00, 8492882.00,25, 1464
17, 1762572.00, 9710409.00, 8492781.00,25, 1569
18, 1762482.00, 9710398.00, 8492839.00,25, 1674
19, 1762402.00, 9710345.00, 8492920.00,25, 1778
20, 1762274.00, 9710216.00, 8492849.00,25, 1883
21, 1762175.00, 9710170.00, 8492895.00,25, 1987
22, 1762135.00, 9710112.00, 8492929.00,25, 2092
23, 1762083.00, 9710043.00, 8492859.00,25, 2196
24, 1762064.00, 9709992.00, 8492855.00,25, 2301
25, 1761996.00, 9709891.00, 8492822.00,25, 2406
26, 1761877.00, 9709803.00, 8492809.00,25, 2510
27, 1761790.00, 9709744.00, 8492789.00,25, 2615
28, 1761774.00, 9709655.00, 8492759.00,25, 2719
29, 1761733.00, 9709593.00, 8492831.00,25, 2824
30, 1761633.00, 9709548.00, 8492913.00,25, 2929
31, 1761505.00, 9709518.00, 8492846.00,25, 3033
32, 1761459.00, 9709483.00, 8492856.00,25, 3138
33, 1761430.00, 9709374.00, 8492843.00,25, 3242
34, 1761389.00, 9709249.00, 8492858.00,25, 3347
35, 1761345.00, 9709168.00, 8492843.00,25, 3451
36, 1761267.00, 9709137.00, 8492942.00,25, 3556
37, 1761194.00, 9709161.00, 8492921.00,25, 3661
38, 1761128.00, 9709155.00, 8492905.00,25, 3765
39, 1761053.00, 9709077.00, 8492877.00,25, 3870
40, 1760979.00, 9709050.00, 8492946.00,25, 3974
41, 1760965.00, 9708889.00, 8492841.00,25, 4079
42, 1760943.00, 9708818.00, 8492817.00,25, 4183
43, 1760841.00, 9708762.00, 8492930.00,25, 4288
44, 1760790.00, 9708716.00, 8492895.00,25, 4393
45, 1760762.00, 9708674.00, 8492941.00,25, 4497
46, 1760688.00, 9708742.00, 8492894.00,25, 4602
47, 1760575.00, 9708881.00, 8492859.00,25, 4706
48, 1760483.00, 9708838.00, 8492938.00,25, 4811
49, 1760420.00, 9708700.00, 8492886.00,25, 4915
50, 1760389.00, 9708704.00, 8492722.00,25, 5020
51, 1760412.00, 9708612.00, 8492762.00,25, 5125
52, 1760327.00, 9708546.00, 8492912.00,25, 5229
53, 1760224.00, 9708534.00, 8492845.00,25, 5334
54, 1760165.00, 9708454.00, 8492825.00,25, 5438
55, 1760127.00, 9708416.00, 8492828.00,25, 5543
56, 1760141.00, 9708335.00, 8492892.00,25, 5647
57, 1760078.00, 9708296.00, 8492886.00,25, 5752
58, 1759969.00, 9708257.00, 8492879.00,25, 5857
59, 1759952.00, 9708190.00, 8492867.00,25, 5961
60, 1759836.00, 9708133.00, 8492951.00,25, 6066
61, 1759771.00, 9708078.00, 8492984.00,25, 6170
62, 1759777.00, 9708042.00, 8492915.00,25, 6275
63, 1759732.00, 9708003.00, 8492855.00,25, 6379
64, 1759584.00, 9707964.00, 8492817.00,25, 6484
65, 1759538.00, 9707820.00, 8492797.00,25, 6589
66, 1759601.00, 9707730.00, 8492842.00,25, 6693
67, 1759581.00, 9707712.00, 8492827.00,25, 6798
68, 1759479.00, 9707684.00, 8492880.00,25, 6902
69, 1759449.00, 9707653.00, 8492937.00,25, 7007
70, 1759392.00, 9707589.00, 8493002.00,25, 7112
71, 1759289.00, 9707522.00, 8492887.00,25, 7216
72, 1759214.00, 9707487.00, 8492875.00,25, 7321
73, 1759152.00, 9707369.00, 8493002.00,25, 7425
74, 1759165.00, 9707331.00, 8492987.00,25, 7530
75, 1759138.00, 9707287.00, 8492930.00,25, 7634
76, 1759084.00, 9707261.00, 8492972.00,25, 7739
77, 1758992.00, 9707183.00, 8492935.00,25, 7844
78, 1758910.00, 9707102.00, 8492934.00,25, 7948
79, 1758913.00, 9707070.00, 8492883.00,25, 8053
80, 1758892.00, 9707095.00, 8492899.00,25, 8157
81, 1758832.00, 9706968.00, 8492824.00,25, 8262
82, 1758755.00, 9706907.00, 8492733.00,25, 8367
83, 1758717.00, 9706860.00, 8492902.00,25, 8471
84, 1758651.00, 9706832.00, 8493027.00,25, 8576
85, 1758577.00, 9706807.00, 8492857.00,25, 8680
86, 1758512.00, 9706707.00, 8492596.00,25, 8785
87, 1758469.00, 9706591.00, 8492770.00,25, 8889
88, 1758419.00, 9706582.00, 8492638.00,25, 8994
89, 1758392.00, 9706396.00, 8492379.00,25, 9099
90, 1758361.00, 9706285.00, 8492025.00,25, 9203
91, 1758343.00, 9706287.00, 8491854.00,25, 9308
92, 1758254.00, 9706267.00, 8492286.00,25, 9412
93, 1758308.00, 9706177.00, 8491632.00,25, 9517
94, 1758382.00, 9706070.00, 8491286.00,25, 9622
95, 1758379.00, 9705986.00, 8491291.00,25, 9726
96, 1758312.00, 9705901.00, 8491828.00,25, 9831
97, 1758211.00, 9705759.00, 8492861.00,25, 9935
98, 1758452.00, 9705363.00, 8492109.00,25, 10040
99, 1758785.00, 9704991.00, 8490704.00,25, 10144
100, 1758849.00, 9704996.00, 8491054.00,25, 10249
101, 1759083.00, 9704690.00, 8491304.00,25, 10354
102, 1758855.00, 9704840.00, 8493568.00,25, 10458
103, 1758793.00, 9704832.00, 8493221.00,25, 10563
104, 1758607.00, 9704733.00, 8493396.00,25, 10667
105, 1758341.00, 9704947.00, 8494850.00,25, 10772
106, 1757846.00, 9705350.00, 8501625.00,25, 10877
107, 1757621.00, 9705414.00, 8501868.00,25, 10981
108, 1756918.00, 9705597.00, 8503990.00,25, 11086
109, 1748759.00, 9708934.00, 8510952.00,25, 11190
110, 1738937.00, 9719346.00, 8520511.00,25, 11295
111, 1737450.00, 9721263.00, 8520202.00,25, 11399
112, 1736588.00, 9721879.00, 8524328.00,25, 11504
113, 1735453.00, 9722979.00, 8529099.00,25, 11609
114, 1732383.00, 9725177.00, 8533098.00,25, 11713
115, 1727999.00, 9728248.00, 8536138.00,25, 11818
116, 1725109.00, 9730087.00, 8536907.00,25, 11922
117, 1724168.00, 9730640.00, 8536684.00,25, 12027
118, 1723701.00, 9730898.00, 8536658.00,25, 12132
119, 1723443.00, 9730981.00, 8536702.00,25, 12236
120, 1722952.00, 9730954.00, 8536652.00,25, 12341
121, 1722343.00, 9731229.00, 8536721.00,25, 12445
122, 1722010.00, 9731329.00, 8536742.00,25, 12550
123, 1721583.00, 9731374.00, 8536656.00,25, 12655
124, 1720710.00, 9731730.00, 8536658.00,25, 12759
125, 1719737.00, 9732187.00, 8536672.00,25, 12864
126, 1719070.00, 9732567.00, 8536699.00,25, 12968
127, 1718736.00, 9732728.00, 8536574.00,25, 13073
128, 1718391.00, 9732766.00, 8536612.00,25, 13177
129, 1718030.00, 9733159.00, 8536668.00,25, 13282
130, 1717812.00, 9733293.00, 8536664.00,25, 13387
131, 1717700.00, 9733335.00, 8536628.00,25, 13491
132, 1717587.00, 9733236.00, 8536663.00,25, 13596
133, 1717316.00, 9733427.00, 8536650.00,25, 13700
134, 1716996.00, 9733746.00, 8536710.00,25, 13805
135, 1716810.00, 9733743.00, 8536719.00,25, 13910
136, 1716722.00, 9733637.00, 8536628.00,25, 14014
137, 1716652.00, 9733594.00, 8536613.00,25, 14119
138, 1716601.00, 9733506.00, 8536700.00,25, 14223
139, 1716432.00, 9733490.00, 8536795.00,25, 14328
140, 1715941.00, 9733598.00, 8536733.00,25, 14432
141, 1715527.00, 9733683.00, 8536678.00,25, 14537
142, 1715086.00, 9733764.00, 8536701.00,25, 14642
143, 1714459.00, 9733908.00, 8536755.00,25, 14746
144, 1713982.00, 9734223.00, 8536732.00,25, 14851
145, 1713808.00, 9734211.00, 8536724.00,25, 14955
146, 1713768.00, 9734163.00, 8536725.00,25, 15060
147, 1713682.00, 9734119.00, 8536767.00,25, 15165
148, 1713616.00, 9734132.00, 8536755.00,25, 15269
149, 1713468.00, 9734194.00, 8536702.00,25, 15374
150, 1713283.00, 9734319.00, 8536756.00,25, 15478
151, 1713086.00, 9734495.00, 8536796.00,25, 15583
152, 1712870.00, 9734789.00, 8536709.00,25, 15688
153, 1712772.00, 9734812.00, 8536791.00,25, 15792
154, 1712687.00, 9734716.00, 8536799.00,25, 15897
155, 1712602.00, 9734571.00, 8536827.00,25, 16001
156, 1712550.00, 9734468.00, 8536716.00,25, 16106
157, 1712483.00, 9734342.00, 8536656.00,25, 16211
158, 1712168.00, 9734366.00, 8536668.00,25, 16315
159, 1711630.00, 9734568.00, 8536715.00,25, 16420
160, 1711211.00, 9734724.00, 8536608.00,25, 16524
161, 1710852.00, 9734795.00, 8536661.00,25, 16629
162, 1710541.00, 9734811.00, 8536705.00,25, 16734
163, 1710398.00, 9734800.00, 8536731.00,25, 16838
164, 1710345.00, 9734739.00, 8536716.00,25, 16943
165, 1710315.00, 9734710.00, 8536663.00,25, 17047
166, 1710236.00, 9734712.00, 8536690.00,25, 17152
167, 1710143.00, 9734848.00, 8536734.00,25, 17257
168, 1709986.00, 9735194.00, 8536802.00,25, 17361
169, 1709810.00, 9735212.00, 8536807.00,25, 17466
170, 1709720.00, 9735224.00, 8536675.00,25, 17570
171, 1709641.00, 9735262.00, 8536651.00,25, 17675
172, 1709641.00, 9735236.00, 8536602.00,25, 17779
173, 1709539.00, 9735078.00, 8536677.00,25, 17884
174, 1709480.00, 9734940.00, 8536618.00,25, 17989
175, 1709461.00, 9734847.00, 8536579.00,25, 18093
176, 1709199.00, 9734819.00, 8536759.00,25, 18198
177, 1708699.00, 9735009.00, 8536709.00,25, 18302
178, 1708309.00, 9735116.00, 8536684.00,25, 18407
179, 1708050.00, 9735165.00, 8536678.00,25, 18512
180, 1707816.00, 9735156.00, 8536731.00,25, 18616
181, 1707702.00, 9735162.00, 8536701.00,25, 18721
182, 1707630.00, 9735164.00, 8536614.00,25, 18825
183, 1707573.00, 9735118.00, 8536685.00,25, 18930
184, 1707509.00, 9735148.00, 8536685.00,25, 19035
185, 1707468.00, 9735179.00, 8536673.00,25, 19139
186, 1707364.00, 9735353.00, 8536680.00,25, 19244
187, 1707197.00, 9735475.00, 8536671.00,25, 19348
188, 1707093.00, 9735390.00, 8536645.00,25, 19453
189, 1707020.00, 9735372.00, 8536747.00,25, 19557
190, 1707016.00, 9735358.00, 8536813.00,25, 19662
191, 1707022.00, 9735242.00, 8536739.00,25, 19767
192, 1707003.00, 9735085.00, 8536695.00,25, 19871
193, 1706944.00, 9734965.00, 8536572.00,25, 19976
194, 1706736.00, 9734917.00, 8536595.00,25, 20080
195, 1706376.00, 9735054.00, 8536648.00,25, 20185
196, 1706046.00, 9735145.00, 8536686.00,25, 20290
197, 1705795.00, 9735223.00, 8536709.00,25, 20394
198, 1705684.00, 9735215.00, 8536724.00,25, 20499
199, 1705571.00, 9735182.00, 8536717.00,25, 20603
200, 1705497.00, 9735175.00, 8536746.00,25, 20708
201, 1705393.00, 9735167.00, 8536704.00,25, 20813
202, 1705405.00, 9735215.00, 8536708.00,25, 20917
203, 1705411.00, 9735244.00, 8536824.00,25, 21022
204, 1705289.00, 9735293.00, 8536821.00,25, 21126
205, 1705105.00, 9735423.00, 8536983.00,25, 21231
206, 1705045.00, 9735400.00, 8537149.00,25, 21336
207, 1704971.00, 9735256.00, 8537295.00,25, 21440
208, 1704725.00, 9735506.00, 8537718.00,25, 21545
209, 1704580.00, 9735506.00, 8538212.00,25, 21649
210, 1704604.00, 9735211.00, 8537783.00,25, 21754
211, 1704613.00, 9735076.00, 8536743.00,25, 21859
212, 1704601.00, 9735020.00, 8535997.00,25, 21963
213, 1704735.00, 9735042.00, 8535365.00,25, 22068
214, 1704464.00, 9734517.00, 8535167.00,25, 22172
215, 1702388.00, 9735497.00, 8539134.00,25, 22277
216, 1701786.00, 9736584.00, 8537323.00,25, 22382
217, 1700297.00, 9737886.00, 8535716.00,25, 22486
218, 1696123.00, 9740142.00, 8542717.00,25, 22591
219, 1692259.00, 9743261.00, 8546052.00,25, 22695
220, 1692192.00, 9742635.00, 8545538.00,25, 22800
221, 1691269.00, 9743564.00, 8549877.00,25, 22905
222, 1688709.00, 9744196.00, 8552624.00,25, 23009
223, 1681087.00, 9747820.00, 8558604.00,25, 23114
224, 1672190.00, 9760783.00, 8567020.00,25, 23218
225, 1661190.00, 9767049.00, 8576664.00,25, 23323
226, 1647900.00, 9772094.00, 8580584.00,25, 23428
227, 1643370.00, 9771971.00, 8581531.00,25, 23532
228, 1643785.00, 9770610.00, 8579972.00,25, 23637
229, 1642618.00, 9769950.00, 8578177.00,25, 23741
230, 1637775.00, 9773016.00, 8580349.00,25, 23846
231, 1636749.00, 9775370.00, 8581416.00,25, 23951
232, 1636887.00, 9774360.00, 8580698.00,25, 24055
233, 1636614.00, 9774030.00, 8580700.00,25, 24160
234, 1636092.00, 9774074.00, 8580777.00,25, 24264
235, 1635715.00, 9774030.00, 8580762.00,25, 24369
236, 1635107.00, 9774110.00, 8580752.00,25, 24474
237, 1634705.00, 9774238.00, 8580680.00,25, 24578
238, 1634516.00, 9774189.00, 8580617.00,25, 24683
239, 1634344.00, 9774113.00, 8580613.00,25, 24788
240, 1634224.00, 9774092.00, 8580609.00,25, 24892
241, 1634105.00, 9774165.00, 8580707.00,25, 24997
242, 1633973.00, 9774214.00, 8580672.00,25, 25101
243, 1633816.00, 9774325.00, 8580695.00,25, 25206
244, 1633447.00, 9774647.00, 8580834.00,25, 25311
245, 1633056.00, 9774967.00, 8580791.00,25, 25415
246, 1632849.00, 9775046.00, 8580640.00,25, 25520
247, 1632644.00, 9775096.00, 8580559.00,25, 25624
248, 1632435.00, 9775001.00, 8580588.00,25, 25729
249, 1632397.00, 9774726.00, 8580709.00,25, 25834
250, 1632293.00, 9774492.00, 8580724.00,25, 25938
251, 1632203.00, 9774348.00, 8580692.00,25, 26043
252, 1632067.00, 9774181.00, 8580657.00,25, 26147
253, 1631708.00, 9774098.00, 8580644.00,25, 26252
254, 1631216.00, 9774144.00, 8580678.00,25, 26357
255, 1630679.00, 9774311.00, 8580720.00,25, 26461
256, 1630428.00, 9774395.00, 8580786.00,25, 26566
257, 1630393.00, 9774341.00, 8580684.00,25, 26670
258, 1630458.00, 9774282.00, 8580544.00,25, 26775
259, 1630384.00, 9774337.00, 8580535.00,25, 26880
260, 1630250.00, 9774417.00, 8580720.00,25, 26984
261, 1630031.00, 9774580.00, 8580735.00,25, 27089
262, 1629692.00, 9774797.00, 8580762.00,25, 27193
263, 1629443.00, 9775110.00, 8580788.00,25, 27298
264, 1629167.00, 9775519.00, 8580790.00,25, 27403
265, 1628962.00, 9775582.00, 8580684.00,25, 27507
266, 1628848.00, 9775519.00, 8580649.00,25, 27612
267, 1628765.00, 9775388.00, 8580745.00,25, 27716
268, 1628727.00, 9775178.00, 8580695.00,25, 27821
269, 1628716.00, 9774954.00, 8580619.00,25, 27926
270, 1628645.00, 9774799.00, 8580750.00,25, 28030
271, 1628416.00, 9774615.00, 8580820.00,25, 28135
272, 1628049.00, 9774577.00, 8580667.00,25, 28239
273, 1627675.00, 9774711.00, 8580653.00,25, 28344
